# SeaFEM body drift results file v.1.0
DataSets	Body data Auto1
SubSets	Drift
numResults	6
time[s]	Fx_correction[N]	Fy_correction[N]	Fz_correction[N]	Mx_correction[N]	My_correction[N]	Mz_correction[N]
0.5	0.579156	1.6948	-12.6492	-8.50533	-10.3232	-5.83969
0.51	0.643366	1.85336	-12.7752	-9.33746	-6.42227	-7.41701
0.52	0.754455	2.02386	-13.0865	-7.77765	0.127354	-4.71627
0.53	0.88284	2.18633	-13.0893	-8.98542	2.39524	-7.09544
0.54	1.06257	2.35963	-13.2869	-7.47313	7.36699	-4.72488
0.55	1.26599	2.5249	-13.2264	-8.06613	8.45593	-5.97768
0.56	1.51607	2.69644	-13.2889	-6.81115	11.2029	-4.23767
0.57	1.7948	2.86061	-13.167	-6.38868	10.8349	-3.62452
0.58	2.11186	3.02763	-13.1202	-5.6045	11.5605	-2.93904
0.59	2.454	3.18863	-12.9453	-6.08786	10.0938	-4.2676
0.6	2.83759	3.34953	-12.8486	-3.49752	9.40137	-0.368248
0.61	3.23629	3.50515	-12.6618	-4.28273	7.58735	-2.52114
0.62	3.67107	3.65942	-12.5547	-1.7617	6.74365	0.763523
0.63	4.11963	3.80853	-12.4059	-1.68747	5.6958	-0.290251
0.64	4.59586	3.95527	-12.334	0.65409	6.06511	2.00035
0.65	5.08549	4.09671	-12.2568	1.54048	7.043	1.64306
0.66	5.597	4.23456	-12.252	3.96871	9.83782	3.22092
0.67	6.12204	4.3664	-12.2615	5.60043	13.8177	3.18782
0.68	6.66625	4.493	-12.3322	8.31608	19.7766	4.24633
0.69	7.22537	4.61212	-12.4197	10.6468	27.1155	4.3202
0.7	7.80388	4.7237	-12.5484	13.7577	36.2269	5.00163
0.71	8.39997	4.82555	-12.6821	16.7178	46.4608	5.08956
0.72	9.01814	4.91835	-12.8558	20.1105	58.5468	5.16391
0.73	9.65707	4.99651	-12.9715	23.6244	69.9948	5.45019
0.74	10.3193	5.05899	-13.0357	27.7516	80.5922	6.5746
0.75	11.0087	5.11302	-13.1989	31.0342	94.6304	5.40487
0.76	11.722	5.1409	-13.1437	35.4806	102.692	7.07501
0.77	12.4643	5.15859	-13.1923	38.934	113.996	6.27956
0.78	13.2319	5.14932	-13.0464	43.1122	119.294	7.6295
0.79	14.0273	5.12485	-12.9445	46.541	125.607	7.42764
0.8	14.8462	5.0738	-12.6917	50.2643	126.468	8.62409
0.81	15.6889	5.0042	-12.451	53.383	126.845	8.88492
0.82	16.5501	4.9088	-12.1029	56.5119	122.464	10.038
0.83	17.4278	4.79335	-11.7612	59.1205	116.975	10.6108
0.84	18.3159	4.65353	-11.3559	61.5782	107.734	11.7228
0.85	19.2105	4.49376	-10.968	63.5875	97.5539	12.4374
0.86	20.1052	4.31182	-10.5584	65.3828	84.9608	13.4318
0.87	20.9948	4.11126	-10.1839	66.8126	72.2042	14.1069
0.88	21.8729	3.89124	-9.82275	68.0356	58.5824	14.869
0.89	22.7345	3.65471	-9.51241	68.9868	45.894	15.3371
0.9	23.5734	3.40164	-9.23889	69.779	33.868	15.7577
0.91	24.3855	3.13444	-9.02421	70.3911	23.8691	15.8943
0.92	25.1664	2.85341	-8.85604	70.8977	15.7754	15.906
0.93	25.9129	2.56044	-8.74451	71.2921	10.4952	15.6548
0.94	26.6226	2.2559	-8.67673	71.6151	7.84699	15.2558
0.95	27.2943	1.94111	-8.65371	71.8512	8.27256	14.6385
0.96	27.9271	1.61639	-8.66244	72.0092	11.4095	13.8939
0.97	28.5219	1.28254	-8.69831	72.0576	17.2646	13.0002
0.98	29.08	0.939671	-8.74833	71.9714	25.2748	12.03
0.99	29.6034	0.588277	-8.80593	71.7042	35.1021	10.9892
1	30.0942	0.228439	-8.86067	71.2124	46.0239	9.93491
1.01	30.5558	-0.139767	-8.90423	70.5957	57.3336	8.99446
1.02	30.9901	-0.516252	-8.92818	69.1149	68.3646	7.819
1.03	31.4007	-0.900041	-8.93537	67.1064	78.8543	6.61089
1.04	31.793	-1.28956	-8.93674	65.5482	88.935	5.81173
1.05	32.1676	-1.68786	-8.89211	64.7405	95.2387	5.86815
1.06	32.5193	-2.09136	-8.83278	59.1087	100.731	3.84757
1.07	32.8641	-2.49913	-8.75886	58.3888	102.799	4.41821
1.08	33.1862	-2.91128	-8.66555	52.2526	102.88	2.89424
1.09	33.4993	-3.32461	-8.56824	49.5744	99.9882	3.07493
1.1	33.7915	-3.73877	-8.46599	43.3522	95.184	2.06395
1.11	34.0695	-4.15061	-8.36912	39.1128	88.2008	1.97788
1.12	34.3249	-4.55891	-8.27989	32.6694	80.0665	1.2431
1.13	34.5591	-4.96137	-8.19967	26.7359	70.5218	0.818056
1.14	34.769	-5.35414	-8.14251	20.5672	61.7803	0.34289
1.15	34.9535	-5.73538	-8.10292	15.6153	53.7018	0.23263
1.16	35.1027	-6.10651	-8.06637	7.29955	45.2609	-0.688092
1.17	35.227	-6.45824	-8.05873	2.84418	40.723	-0.682415
1.18	35.312	-6.79637	-8.04839	-4.99029	36.4762	-1.39815
1.19	35.3679	-7.11216	-8.05306	-9.96267	36.5756	-1.4951
1.2	35.3859	-7.40976	-8.05186	-16.9392	38.1458	-1.93386
1.21	35.3735	-7.68324	-8.05053	-22.0696	43.791	-1.98997
1.22	35.3272	-7.93531	-8.03708	-28.2992	51.2799	-2.16028
1.23	35.2534	-8.16219	-8.01217	-33.3271	62.0451	-2.07142
1.24	35.1517	-8.3658	-7.97035	-38.9317	74.2023	-1.98286
1.25	35.0288	-8.54299	-7.91262	-43.6448	89.129	-1.6722
1.26	34.8852	-8.6975	-7.83572	-49.0293	103.309	-1.39065
1.27	34.7276	-8.82802	-7.74254	-53.4431	116.538	-1.02547
1.28	34.5599	-8.93038	-7.63954	-58.1219	132.549	-0.448374
1.29	34.3835	-9.01364	-7.52894	-62.7987	142.285	-0.0943377
1.3	34.2058	-9.06738	-7.41447	-66.7258	154.653	0.558157
1.31	34.0251	-9.1023	-7.30985	-71.2025	159.877	0.923402
1.32	33.8473	-9.10967	-7.21252	-74.9515	165.277	1.46784
1.33	33.6701	-9.09701	-7.14137	-79.0523	164.094	1.75979
1.34	33.4965	-9.05831	-7.09084	-82.5437	161.55	2.12857
1.35	33.3235	-8.99843	-7.07857	-86.1333	153.347	2.28155
1.36	33.1509	-8.91333	-7.09711	-89.1967	143.315	2.45111
1.37	32.975	-8.80606	-7.15942	-92.1447	128.977	2.44975
1.38	32.7933	-8.67386	-7.25531	-94.5729	113.304	2.44627
1.39	32.6015	-8.51936	-7.39516	-96.2377	94.1898	2.17444
1.4	32.3948	-8.33831	-7.5518	-98.6039	77.3193	2.32958
1.41	32.1697	-8.13442	-7.73975	-100.298	58.8854	2.33206
1.42	31.9237	-7.90943	-7.96446	-98.6107	37.0952	1.37874
1.43	31.6469	-7.6549	-8.14828	-101.601	25.5286	2.34813
1.44	31.3443	-7.38384	-8.38599	-98.4613	6.33594	1.20846
1.45	31.0048	-7.08449	-8.55521	-99.5047	-1.46442	2.04829
1.46	30.6333	-6.76858	-8.75281	-96.2398	-13.4846	1.3221
1.47	30.2237	-6.42825	-8.87804	-95.3164	-16.3994	1.95628
1.48	29.7796	-6.0724	-9.0092	-91.6552	-21.0043	1.56411
1.49	29.2992	-5.69639	-9.07241	-89.1959	-18.7662	2.04809
1.5	28.7861	-5.30719	-9.13131	-84.9911	-17.2415	1.85404
1.51	28.2413	-4.90246	-9.13601	-81.3654	-11.1885	2.18871
1.52	27.669	-4.48779	-9.13908	-76.6259	-6.01896	2.05534
1.53	27.0713	-4.06252	-9.1102	-72.4722	1.39957	2.33631
1.54	26.4537	-3.63123	-9.09789	-66.6393	6.51011	1.86116
1.55	25.817	-3.19394	-9.07323	-62.2341	12.4726	2.08589
1.56	25.1671	-2.75491	-9.08898	-56.2594	14.6734	1.52375
1.57	24.5045	-2.31452	-9.12109	-51.3664	15.7167	1.45885
1.58	23.833	-1.87626	-9.21075	-45.4651	12.3722	0.821908
1.59	23.1525	-1.44073	-9.33962	-40.2998	6.53795	0.498881
1.6	22.4645	-1.01078	-9.53659	-34.6024	-3.81196	-0.184015
1.61	21.7676	-0.587041	-9.78498	-29.4151	-17.1416	-0.665202
1.62	21.061	-0.1717	-10.1007	-24.009	-34.4604	-1.34166
1.63	20.342	0.234689	-10.4655	-18.9987	-54.3507	-1.86278
1.64	19.6079	0.630507	-10.8839	-13.9694	-77.0834	-2.45872
1.65	18.8547	1.01535	-11.3347	-9.28288	-101.255	-2.91236
1.66	18.0788	1.38808	-11.813	-4.70323	-126.633	-3.35894
1.67	17.2759	1.74834	-12.298	-0.265486	-152.029	-3.7671
1.68	16.4415	2.09555	-12.7721	3.54274	-176.5	-3.87468
1.69	15.5725	2.42928	-13.223	7.51091	-199.536	-4.11955
1.7	14.6648	2.74921	-13.6297	10.8718	-220.061	-4.08396
1.71	13.7163	3.05501	-13.9818	14.2699	-237.689	-4.13959
1.72	12.7248	3.34646	-14.2631	17.1636	-251.656	-3.99202
1.73	11.6898	3.62326	-14.4687	19.9779	-261.85	-3.89729
1.74	10.6112	3.8852	-14.5902	22.3902	-267.905	-3.68427
1.75	9.49038	4.13199	-14.6292	24.6567	-269.979	-3.51215
1.76	8.3295	4.36341	-14.5864	26.5891	-268.144	-3.28189
1.77	7.13189	4.57912	-14.4703	28.3405	-262.863	-3.0912
1.78	5.90144	4.77889	-14.2889	29.802	-254.519	-2.87962
1.79	4.6429	4.96241	-14.0557	31.0631	-243.777	-2.70142
1.8	3.36131	5.12945	-13.7833	32.0602	-231.245	-2.51646
1.81	2.06214	5.28111	-13.462	32.2496	-216.245	-2.0375
1.82	0.750847	5.41386	-13.1687	33.0439	-203.034	-2.00603
1.83	-0.566824	5.52784	-12.9149	34.7307	-192.192	-2.52022
1.84	-1.88758	5.63181	-12.5395	32.5454	-174.361	-1.18945
1.85	-3.20435	5.7101	-12.3549	34.5438	-167.519	-2.01231
1.86	-4.51569	5.78016	-12.043	32.3582	-153.169	-0.89479
1.87	-5.81645	5.82705	-11.8892	33.0682	-147.996	-1.19556
1.88	-7.10507	5.86434	-11.66	31.1205	-138.23	-0.356709
1.89	-8.38138	5.88269	-11.5238	28.8458	-134.016	0.715771
1.9	-9.63808	5.89062	-11.3637	27.7931	-128.14	0.947387
1.91	-10.8784	5.88257	-11.2612	27.6131	-125.786	0.763507
1.92	-12.1023	5.86597	-11.124	25.619	-121.283	1.46313
1.93	-13.3078	5.83874	-10.9783	23.9601	-116.208	1.85715
1.94	-14.4967	5.80298	-10.8059	20.7725	-109.473	2.90974
1.95	-15.6631	5.76011	-10.6106	20.8007	-101.059	2.37087
1.96	-16.8121	5.70917	-10.3997	19.2225	-91.7214	2.63009
1.97	-17.9409	5.65949	-10.0589	15.8975	-73.4764	3.35398
1.98	-19.0446	5.60232	-9.73317	14.8512	-55.9717	3.17822
1.99	-20.125	5.54384	-9.33883	12.2982	-33.5077	3.57125
2	-21.1729	5.48663	-8.87245	11.8361	-5.25217	2.93141
2.01	-22.1916	5.42678	-8.38049	9.37153	25.1821	3.19227
2.02	-23.1688	5.36927	-7.83228	9.09586	60.6902	2.46288
2.03	-24.1055	5.31134	-7.26012	7.54155	98.6489	2.28662
2.04	-24.9909	5.25563	-6.65596	7.45715	140.124	1.50454
2.05	-25.8252	5.20137	-6.0296	5.28154	184.082	1.54668
2.06	-26.5877	5.14485	-5.44804	9.18348	226.065	-0.580926
2.07	-27.2968	5.09387	-4.80376	5.22013	273.277	0.133815
2.08	-27.9206	5.03865	-4.24399	8.96815	315.174	-1.69764
2.09	-28.4736	4.98603	-3.66524	7.12135	358.953	-1.62765
2.1	-28.9372	4.93007	-3.16004	10.0224	397.528	-2.94457
2.11	-29.3176	4.87418	-2.67066	9.53336	434.948	-3.12159
2.12	-29.6042	4.81481	-2.25087	11.9525	466.871	-4.05275
2.13	-29.801	4.75382	-1.86539	12.2957	495.759	-4.26092
2.14	-29.9025	4.68911	-1.54431	14.3933	519.106	-4.86409
2.15	-29.9125	4.62186	-1.26354	15.1964	538.634	-4.99049
2.16	-29.8293	4.55094	-1.03813	17.0347	553.111	-5.31546
2.17	-29.6577	4.4773	-0.850588	18.0474	563.889	-5.32345
2.18	-29.3985	4.40046	-0.704866	19.6552	570.69	-5.43361
2.19	-29.0572	4.32127	-0.586576	20.7283	574.717	-5.34211
2.2	-28.6368	4.2397	-0.494429	22.1373	576.178	-5.31679
2.21	-28.1428	4.15648	-0.415507	23.2018	576.181	-5.17984
2.22	-27.5794	4.07179	-0.345292	24.4577	575.177	-5.10527
2.23	-26.9519	3.98618	-0.273432	25.4985	574.042	-4.98865
2.24	-26.2645	3.8998	-0.194972	26.6541	573.204	-4.94267
2.25	-25.5218	3.81291	-0.10219	27.6802	573.256	-4.90236
2.26	-24.7275	3.72547	0.00773609	28.7766	574.395	-4.93821
2.27	-23.8854	3.63741	0.138319	29.7911	576.826	-5.00413
2.28	-22.9981	3.54838	0.289031	30.8372	580.444	-5.13885
2.29	-22.0683	3.45796	0.458348	31.8119	585.057	-5.30416
2.3	-21.098	3.36552	0.641479	32.7705	590.254	-5.51547
2.31	-20.0887	3.27035	0.832178	33.6339	595.54	-5.73713
2.32	-19.042	3.1712	1.01862	34.248	600.065	-5.89936
2.33	-17.9568	3.06916	1.2034	36.1574	604.223	-6.66318
2.34	-16.8441	2.95896	1.35157	34.0498	605.124	-5.65049
2.35	-15.6873	2.8455	1.47475	36.9625	604.756	-7.01159
2.36	-14.5082	2.72268	1.54054	34.9493	600.134	-6.04329
2.37	-13.2929	2.59396	1.5536	36.2837	592.667	-6.77064
2.38	-12.056	2.45577	1.48898	34.5096	580.549	-5.95623
2.39	-10.7922	2.3101	1.34988	34.5807	564.736	-6.16726
2.4	-9.51206	2.15511	1.12009	32.6231	544.35	-5.33598
2.41	-8.21545	1.99224	0.80479	31.6175	520.262	-5.11502
2.42	-6.91166	1.82083	0.397644	29.249	492.309	-4.18465
2.43	-5.60361	1.64218	-0.0911457	27.3225	461.467	-3.61706
2.44	-4.30019	1.45646	-0.658293	24.4656	428.068	-2.57334
2.45	-3.00591	1.2626	-1.32882	22.2205	391.186	-2.01039
2.46	-1.73129	1.07211	-1.90578	17.8114	360.328	-0.216949
2.47	-0.4785	0.865655	-2.73074	15.7374	319.437	0.0311707
2.48	0.742163	0.667525	-3.36741	11.1697	288.659	1.72356
2.49	1.9248	0.459854	-4.15426	8.24806	252.631	2.32536
2.5	3.06487	0.258075	-4.79053	3.85143	224.335	3.76898
2.51	4.15526	0.052489	-5.47926	0.465979	194.953	4.49696
2.52	5.19337	-0.147648	-6.03065	-3.75982	172.048	5.7337
2.53	6.17406	-0.347724	-6.56993	-7.33324	150.38	6.478
2.54	7.09599	-0.54212	-6.98079	-11.3548	134.206	7.52855
2.55	7.95652	-0.733858	-7.34576	-14.9314	120.169	8.23838
2.56	8.75553	-0.919568	-7.59909	-18.7221	110.485	9.13567
2.57	9.49257	-1.10097	-7.80043	-22.196	102.841	9.80685
2.58	10.1688	-1.27606	-7.91957	-25.7526	98.1309	10.6009
2.59	10.7858	-1.44385	-7.9512	-28.4756	96.4131	10.6514
2.6	11.3429	-1.61212	-8.12828	-33.3387	89.9037	12.9672
2.61	11.8478	-1.76407	-8.02175	-34.8766	92.6239	11.928
2.62	12.2937	-1.91874	-8.17782	-39.3075	87.0462	14.0996
2.63	12.6935	-2.05957	-8.16552	-41.3495	86.7439	13.7509
2.64	13.0381	-2.19877	-8.35338	-45.1012	80.5385	15.4796
2.65	13.3385	-2.32639	-8.4827	-47.3806	76.1968	15.6455
2.66	13.5879	-2.44932	-8.77751	-50.6404	67.3474	17.1334
2.67	13.7931	-2.56141	-9.07657	-52.9567	58.6558	17.6609
2.68	13.9493	-2.66633	-9.51087	-55.7878	46.5948	19.0172
2.69	14.0599	-2.76011	-9.97284	-57.9601	34.2082	19.7712
2.7	14.121	-2.84452	-10.5318	-60.3315	19.7223	21.0225
2.71	14.1357	-2.91696	-11.1248	-61.0834	4.89979	20.5708
2.72	14.0915	-2.97776	-11.7103	-65.6474	-9.13465	25.0048
2.73	14.0063	-3.02583	-12.3648	-64.036	-24.3666	22.1462
2.74	13.8578	-3.05992	-12.9334	-67.4359	-36.7282	25.9675
2.75	13.6607	-3.0807	-13.5032	-66.3317	-48.5049	24.2615
2.76	13.4031	-3.0861	-13.9615	-68.0001	-56.8854	26.6758
2.77	13.0924	-3.07724	-14.3543	-66.7518	-63.0321	25.5305
2.78	12.7232	-3.05268	-14.6087	-66.9511	-65.239	26.8392
2.79	12.3007	-3.01342	-14.7527	-65.1738	-64.2498	25.8296
2.8	11.8232	-2.95882	-14.7449	-64.0549	-59.1483	26.2249
2.81	11.2958	-2.88986	-14.608	-61.5346	-50.5308	25.0805
2.82	10.7199	-2.80659	-14.3262	-59.2157	-38.1499	24.6988
2.83	10.1007	-2.71012	-13.9244	-55.8669	-22.5919	23.2766
2.84	9.44176	-2.601	-13.406	-52.4717	-4.07889	22.2413
2.85	8.74914	-2.48047	-12.8007	-48.3042	16.6133	20.4987
2.86	8.02717	-2.34947	-12.1237	-43.9753	39.1367	18.9449
2.87	7.2825	-2.20933	-11.4072	-39.0645	62.5817	16.9151
2.88	6.52013	-2.06077	-10.6661	-33.7749	86.6282	14.811
2.89	5.74554	-1.90703	-9.95742	-28.701	109.837	13.0198
2.9	4.96494	-1.7458	-9.24789	-22.4882	132.98	10.3257
2.91	4.18183	-1.58193	-8.6212	-16.8338	154.029	8.48076
2.92	3.40209	-1.41421	-8.03861	-10.3731	173.896	5.79628
2.93	2.62808	-1.24513	-7.5517	-4.20889	191.343	3.79512
2.94	1.86439	-1.07489	-7.13298	2.44661	206.965	1.25325
2.95	1.11231	-0.905054	-6.80519	8.92627	220.271	-0.820949
2.96	0.375067	-0.736048	-6.54273	15.6914	231.744	-3.20676
2.97	-0.34697	-0.569053	-6.34723	22.3308	241.424	-5.28692
2.98	-1.05218	-0.404547	-6.19085	29.1112	249.899	-7.54558
2.99	-1.74032	-0.243406	-6.06237	35.7736	257.419	-9.61146
3	-2.41079	-0.0861609	-5.92611	42.3602	264.756	-11.6947